wavenumber._cm
67.035
68.41
69.785
71.158
72.533
73.906
75.27899999999998
76.652
78.025
79.39799999999998
80.76999999999998
82.143
83.51399999999998
84.885
86.256
87.62699999999998
88.998
90.36900000000001
91.73800000000001
93.10700000000001
94.47900000000001
95.848
97.217
98.584
99.953
101.322
102.689
104.057
105.424
106.791
108.158
109.525
110.893
112.258
113.623
114.988
116.355
117.719
119.084
120.449
121.813
123.178
124.541
125.904
127.268
128.631
129.992
131.355
132.717
134.078
135.441
136.803
138.162
139.523
140.885
142.244
143.604
144.965
146.324
147.682
149.041
150.4
151.758
153.117
154.475
155.832
157.189
158.547
159.902
161.26
162.615
163.971
165.326
166.682
168.037
169.393
170.746
172.102
173.455
174.809
176.162
177.516
178.869
180.221
181.574
182.926
184.277
185.629
186.98
188.332
189.684
191.033
192.385
193.734
195.084
196.434
197.783
199.131
200.48
201.828
203.176
204.525
205.873
207.219
208.566
209.914
211.26
212.605
213.951
215.299
216.643
217.988
219.334
220.678
222.023
223.367
224.711
226.055
227.396
228.74
230.084
231.426
232.768
234.109
235.451
236.793
238.135
239.475
240.816
242.156
243.496
244.836
246.176
247.516
248.854
250.193
251.531
252.869
254.207
255.545
256.883
258.221
259.557
260.893
262.23
263.566
264.902
266.236
267.572
268.908
270.242
271.576
272.91
274.244
275.578
276.912
278.244
279.578
280.91
282.242
283.574
284.906
286.238
287.57
288.9
290.23
291.563
292.893
294.223
295.551
296.881
298.211
299.539
300.867
302.195
303.523
304.852
306.18
307.506
308.834
310.16
311.486
312.813
314.139
315.465
316.789
318.115
319.439
320.764
322.088
323.412
324.736
326.061
327.383
328.707
330.029
331.352
332.674
333.996
335.316
336.639
337.959
339.281
340.602
341.922
343.242
344.563
345.881
347.201
348.52
349.838
351.156
352.475
353.793
355.111
356.428
357.744
359.063
360.379
361.695
363.012
364.326
365.643
366.957
368.273
369.588
370.902
372.217
373.531
374.844
376.158
377.471
378.783
380.096
381.408
382.721
384.033
385.344
386.656
387.967
389.277
390.588
391.898
393.209
394.518
395.828
397.137
398.445
399.754
401.063
402.371
403.68
404.986
406.295
407.602
408.908
410.215
411.521
412.826
414.133
415.438
416.744
418.049
419.354
420.658
421.963
423.266
424.57
425.873
427.176
428.479
429.781
431.084
432.387
433.689
434.99
436.291
437.592
438.893
440.193
441.494
442.795
444.094
445.395
446.693
447.992
449.291
450.59
451.887
453.186
454.482
455.781
457.078
458.375
459.672
460.967
462.264
463.561
464.855
466.15
467.445
468.74
470.035
471.33
472.623
473.918
475.211
476.504
477.797
479.09
480.383
481.676
482.967
484.258
485.551
486.842
488.133
489.424
490.713
492.004
493.293
494.584
495.873
497.162
498.451
499.74
501.027
502.316
503.604
504.891
506.18
507.467
508.752
510.039
511.326
512.611
513.898
515.184
516.469
517.754
519.039
520.322
521.607
522.891
524.176
525.459
526.742
528.025
529.307
530.59
531.873
533.154
534.436
535.717
536.998
538.279
539.561
540.84
542.121
543.4
544.68
545.959
547.238
548.518
549.797
551.074
552.354
553.631
554.908
556.186
557.463
558.74
560.018
561.293
562.568
563.846
565.121
566.396
567.672
568.945
570.221
571.494
572.77
574.043
575.316
576.59
577.863
579.135
580.408
581.68
582.953
584.225
585.496
586.768
588.039
589.309
590.58
591.85
593.121
594.391
595.66
596.93
598.197
599.467
600.736
602.004
603.271
604.539
605.807
607.074
608.342
609.607
610.875
612.141
613.408
614.674
615.939
617.203
618.469
619.734
620.998
622.264
623.527
624.791
626.055
627.318
628.58
629.844
631.105
632.369
633.631
634.893
636.154
637.416
638.676
639.938
641.197
642.457
643.719
644.979
646.238
647.496
648.756
650.016
651.273
652.531
653.789
655.047
656.305
657.563
658.82
660.076
661.334
662.59
663.846
665.102
666.357
667.613
668.867
670.123
671.377
672.633
673.887
675.141
676.395
677.646
678.9
680.154
681.406
682.658
683.91
685.162
686.414
687.666
688.918
690.168
691.418
692.67
693.92
695.17
696.42
697.67
698.918
700.168
701.416
702.664
703.912
705.16
706.408
707.656
708.904
710.15
711.398
712.645
713.891
715.137
716.383
717.629
718.873
720.119
721.363
722.609
723.854
725.0979999999998
726.342
727.586
728.8279999999999
730.072
731.3139999999999
732.557
733.801
735.043
736.2849999999999
737.5249999999999
738.768
740.01
741.25
742.49
743.73
744.9729999999998
746.211
747.451
748.691
749.932
751.1699999999998
752.408
753.6459999999998
754.8869999999998
756.125
757.361
758.6
759.8379999999999
761.0739999999998
762.311
763.5489999999999
764.7849999999999
766.0209999999998
767.258
768.4919999999998
769.729
770.9629999999999
772.1989999999998
773.4339999999999
774.668
775.902
777.1369999999998
778.371
779.604
780.8379999999999
782.07
783.3049999999998
784.537
785.77
787.0019999999998
788.2319999999999
789.465
790.697
791.928
793.158
794.3909999999998
795.621
796.8519999999999
798.08
799.311
800.541
801.77
802.998
804.229
805.457
806.686
807.914
809.1409999999998
810.369
811.596
812.8239999999998
814.051
815.277
816.504
817.73
818.957
820.182
821.408
822.633
823.859
825.0839999999998
826.3089999999999
827.533
828.758
829.98
831.205
832.428
833.652
834.875
836.0979999999998
837.32
838.543
839.764
840.986
842.2089999999998
843.4299999999998
844.6499999999999
845.871
847.092
848.313
849.533
850.754
851.9729999999998
853.193
854.412
855.6309999999999
856.85
858.068
859.287
860.5059999999999
861.7229999999998
862.941
864.158
865.375
866.592
867.8089999999999
869.0249999999999
870.2419999999998
871.4589999999998
872.6739999999999
873.8909999999998
875.105
876.32
877.5349999999999
878.75
879.965
881.1799999999998
882.393
883.6069999999999
884.82
886.033
887.246
888.4589999999998
889.672
890.885
892.096
893.3089999999999
894.52
895.7319999999999
896.943
898.154
899.365
900.576
901.785
902.996
904.205
905.416
906.625
907.834
909.043
910.252
911.461
912.668
913.877
915.084
916.291
917.5
918.7070000000001
919.914
921.119
922.326
923.533
924.738
925.943
927.15
928.355
929.561
930.766
931.971
933.174
934.379
935.5820000000001
936.785
937.99
939.193
940.396
941.598
942.801
944.004
945.205
946.408
947.609
948.811
950.012
951.213
952.414
953.613
954.814
956.014
957.215
958.414
959.613
960.813
962.012
963.211
964.408
965.607
966.805
968.004
969.201
970.398
971.596
972.791
973.988
975.186
976.381
977.578
978.773
979.969
981.164
982.359
983.555
984.748
985.943
987.137
988.3320000000001
989.525
990.719
991.912
993.105
994.299
995.49
996.684
997.875
999.068
1000.26
1001.451
1002.643
1003.834
1005.023
1006.215
1007.404
1008.596
1009.785
1010.975
1012.164
1013.354
1014.543
1015.732
1016.92
1018.109
1019.297
1020.484
1021.672
1022.859
1024.047
1025.234
1026.422
1027.607
1028.795
1029.98
1031.166
1032.352
1033.537
1034.723
1035.908
1037.092
1038.277
1039.461
1040.646
1041.83
1043.014
1044.197
1045.381
1046.563
1047.746
1048.928
1050.111
1051.293
1052.475
1053.656
1054.838
1056.02
1057.201
1058.381
1059.563
1060.742
1061.922
1063.104
1064.283
1065.461
1066.641
1067.82
1068.998
1070.178
1071.355
1072.533
1073.713
1074.891
1076.066
1077.244
1078.422
1079.598
1080.775
1081.951
1083.127
1084.303
1085.479
1086.654
1087.83
1089.006
1090.18
1091.355
1092.529
1093.703
1094.877
1096.051
1097.225
1098.398
1099.57
1100.744
1101.916
1103.088
1104.262
1105.434
1106.605
1107.775
1108.947
1110.119
1111.289
1112.461
1113.631
1114.801
1115.971
1117.141
1118.311
1119.479
1120.648
1121.816
1122.986
1124.154
1125.322
1126.49
1127.658
1128.826
1129.994
1131.16
1132.328
1133.494
1134.66
1135.826
1136.992
1138.158
1139.324
1140.49
1141.654
1142.82
1143.984
1145.148
1146.313
1147.477
1148.641
1149.805
1150.967
1152.131
1153.293
1154.457
1155.619
1156.781
1157.943
1159.105
1160.268
1161.428
1162.59
1163.75
1164.91
1166.072
1167.232
1168.393
1169.553
1170.711
1171.871
1173.029
1174.189
1175.348
1176.506
1177.664
1178.822
1179.98
1181.139
1182.295
1183.453
1184.609
1185.768
1186.924
1188.08
1189.236
1190.391
1191.547
1192.703
1193.857
1195.014
1196.168
1197.322
1198.477
1199.631
1200.785
1201.938
1203.092
1204.244
1205.398
1206.551
1207.703
1208.855
1210.008
1211.16
1212.313
1213.463
1214.615
1215.766
1216.916
1218.066
1219.217
1220.367
1221.518
1222.668
1223.816
1224.965
1226.115
1227.264
1228.412
1229.561
1230.709
1231.857
1233.004
1234.152
1235.299
1236.447
1237.594
1238.74
1239.887
1241.033
1242.178
1243.324
1244.471
1245.615
1246.76
1247.904
1249.049
1250.193
1251.338
1252.482
1253.627
1254.77
1255.912
1257.057
1258.199
1259.342
1260.484
1261.627
1262.768
1263.91
1265.051
1266.193
1267.334
1268.475
1269.615
1270.756
1271.896
1273.035
1274.176
1275.314
1276.455
1277.594
1278.732
1279.871
1281.01
1282.148
1283.285
1284.424
1285.561
1286.699
1287.836
1288.973
1290.109
1291.246
1292.383
1293.518
1294.654
1295.789
1296.924
1298.061
1299.195
1300.33
1301.463
1302.598
1303.732
1304.865
1306.0
1307.133
1308.266
1309.398
1310.531
1311.664
1312.795
1313.928
1315.061
1316.191
1317.322
1318.453
1319.584
1320.715
1321.846
1322.977
1324.105
1325.234
1326.365
1327.494
1328.623
1329.752
1330.881
1332.01
1333.137
1334.266
1335.393
1336.52
1337.648
1338.775
1339.902
